VCC	3.3	Max ADC	4096	Pull Down	10000	Thermistor	10000				
ADC Value (0-4096)	Ratio	Voltage	Thermistor Resistance	Temperature (K)	Temperature (C)						
0	0	0	0	#NUM!	#NUM!						
4	0.0009765625	0.00322265625	9.775171065	588.79	315.64						
8	0.001953125	0.0064453125	19.56947162	539.70	266.55						
12	0.0029296875	0.00966796875	29.38295788	514.27	241.12			A	B	C	D
16	0.00390625	0.012890625	39.21568627	497.49	224.34			3.35E-03	2.57E-04	2.62E-06	6.38E-08
20	0.0048828125	0.01611328125	49.06771344	485.12	211.97						
24	0.005859375	0.0193359375	58.93909627	475.41	202.26						
28	0.0068359375	0.02255859375	68.82989184	467.47	194.32						
32	0.0078125	0.02578125	78.74015748	460.76	187.61						
36	0.0087890625	0.02900390625	88.66995074	454.99	181.84						
40	0.009765625	0.0322265625	98.61932939	449.93	176.78						
44	0.0107421875	0.03544921875	108.5883514	445.43	172.28						
48	0.01171875	0.038671875	118.5770751	441.39	168.24						
52	0.0126953125	0.04189453125	128.5855589	437.72	164.57						
56	0.013671875	0.0451171875	138.6138614	434.37	161.22						
60	0.0146484375	0.04833984375	148.6620416	431.30	158.15						
64	0.015625	0.0515625	158.7301587	428.45	155.30						
68	0.0166015625	0.05478515625	168.8182721	425.80	152.65						
72	0.017578125	0.0580078125	178.9264414	423.33	150.18						
76	0.0185546875	0.06123046875	189.0547264	421.01	147.86						
80	0.01953125	0.064453125	199.2031873	418.83	145.68						
84	0.0205078125	0.06767578125	209.3718843	416.78	143.63						
88	0.021484375	0.0708984375	219.5608782	414.83	141.68						
92	0.0224609375	0.07412109375	229.7702298	412.98	139.83						
96	0.0234375	0.07734375	240	411.23	138.08						
100	0.0244140625	0.08056640625	250.2502503	409.55	136.40						
104	0.025390625	0.0837890625	260.5210421	407.95	134.80						
108	0.0263671875	0.08701171875	270.8124373	406.43	133.28						
112	0.02734375	0.090234375	281.124498	404.96	131.81						
116	0.0283203125	0.09345703125	291.4572864	403.55	130.40						
120	0.029296875	0.0966796875	301.8108652	402.20	129.05						
124	0.0302734375	0.09990234375	312.1852971	400.90	127.75						
128	0.03125	0.103125	322.5806452	399.65	126.50						
132	0.0322265625	0.1063476563	332.9969728	398.44	125.29						
136	0.033203125	0.1095703125	343.4343434	397.27	124.12						
140	0.0341796875	0.1127929688	353.892821	396.14	122.99						
144	0.03515625	0.116015625	364.3724696	395.04	121.89						
148	0.0361328125	0.1192382813	374.8733536	393.98	120.83						
152	0.037109375	0.1224609375	385.3955375	392.95	119.80						
156	0.0380859375	0.1256835938	395.9390863	391.96	118.81						
160	0.0390625	0.12890625	406.504065	390.99	117.84						
164	0.0400390625	0.1321289063	417.0905392	390.04	116.89						
168	0.041015625	0.1353515625	427.6985743	389.13	115.98						
172	0.0419921875	0.1385742188	438.3282365	388.24	115.09						
176	0.04296875	0.141796875	448.9795918	387.37	114.22						
180	0.0439453125	0.1450195313	459.6527068	386.52	113.37						
184	0.044921875	0.1482421875	470.3476483	385.69	112.54						
188	0.0458984375	0.1514648438	481.0644831	384.89	111.74						
192	0.046875	0.1546875	491.8032787	384.10	110.95						
196	0.0478515625	0.1579101563	502.5641026	383.33	110.18						
200	0.048828125	0.1611328125	513.3470226	382.58	109.43						
204	0.0498046875	0.1643554688	524.1521069	381.84	108.69						
208	0.05078125	0.167578125	534.9794239	381.12	107.97						
212	0.0517578125	0.1708007813	545.8290422	380.42	107.27						
216	0.052734375	0.1740234375	556.7010309	379.73	106.58						
220	0.0537109375	0.1772460938	567.5954592	379.06	105.91						
224	0.0546875	0.18046875	578.5123967	378.40	105.25						
228	0.0556640625	0.1836914063	589.4519131	377.75	104.60						
232	0.056640625	0.1869140625	600.4140787	377.11	103.96						
236	0.0576171875	0.1901367188	611.3989637	376.49	103.34						
240	0.05859375	0.193359375	622.406639	375.88	102.73						
244	0.0595703125	0.1965820313	633.4371755	375.27	102.12						
248	0.060546875	0.1998046875	644.4906445	374.68	101.53						
252	0.0615234375	0.2030273438	655.5671176	374.10	100.95						
256	0.0625	0.20625	666.6666667	373.53	100.38						
260	0.0634765625	0.2094726563	677.7893639	372.97	99.82						
264	0.064453125	0.2126953125	688.9352818	372.42	99.27						
268	0.0654296875	0.2159179688	700.1044932	371.88	98.73						
272	0.06640625	0.219140625	711.2970711	371.35	98.20						
276	0.0673828125	0.2223632813	722.513089	370.83	97.68						
280	0.068359375	0.2255859375	733.7526205	370.31	97.16						
284	0.0693359375	0.2288085938	745.0157398	369.80	96.65						
288	0.0703125	0.23203125	756.302521	369.30	96.15						
292	0.0712890625	0.2352539063	767.6130389	368.81	95.66						
296	0.072265625	0.2384765625	778.9473684	368.32	95.17						
300	0.0732421875	0.2416992188	790.3055848	367.85	94.70						
304	0.07421875	0.244921875	801.6877637	367.38	94.23						
308	0.0751953125	0.2481445313	813.093981	366.91	93.76						
312	0.076171875	0.2513671875	824.5243129	366.45	93.30						
316	0.0771484375	0.2545898438	835.978836	366.00	92.85						
320	0.078125	0.2578125	847.4576271	365.56	92.41						
324	0.0791015625	0.2610351563	858.9607635	365.12	91.97						
328	0.080078125	0.2642578125	870.4883227	364.68	91.53						
332	0.0810546875	0.2674804688	882.0403826	364.26	91.11						
336	0.08203125	0.270703125	893.6170213	363.83	90.68						
340	0.0830078125	0.2739257813	905.2183174	363.42	90.27						
344	0.083984375	0.2771484375	916.8443497	363.01	89.86						
348	0.0849609375	0.2803710938	928.4951974	362.60	89.45						
352	0.0859375	0.28359375	940.1709402	362.20	89.05						
356	0.0869140625	0.2868164063	951.8716578	361.80	88.65						
360	0.087890625	0.2900390625	963.5974304	361.41	88.26						
364	0.0888671875	0.2932617188	975.3483387	361.02	87.87						
368	0.08984375	0.296484375	987.1244635	360.64	87.49						
372	0.0908203125	0.2997070313	998.9258861	360.26	87.11						
376	0.091796875	0.3029296875	1010.752688	359.89	86.74						
380	0.0927734375	0.3061523438	1022.604952	359.52	86.37						
384	0.09375	0.309375	1034.482759	359.15	86.00						
388	0.0947265625	0.3125976563	1046.386192	358.79	85.64						
392	0.095703125	0.3158203125	1058.315335	358.43	85.28						
396	0.0966796875	0.3190429688	1070.27027	358.08	84.93						
400	0.09765625	0.322265625	1082.251082	357.73	84.58						
404	0.0986328125	0.3254882813	1094.257855	357.38	84.23						
408	0.099609375	0.3287109375	1106.290672	357.04	83.89						
412	0.1005859375	0.3319335938	1118.34962	356.70	83.55						
416	0.1015625	0.33515625	1130.434783	356.37	83.22						
420	0.1025390625	0.3383789063	1142.546246	356.03	82.88						
424	0.103515625	0.3416015625	1154.684096	355.70	82.55						
428	0.1044921875	0.3448242188	1166.848419	355.38	82.23						
432	0.10546875	0.348046875	1179.039301	355.06	81.91						
436	0.1064453125	0.3512695313	1191.256831	354.74	81.59						
440	0.107421875	0.3544921875	1203.501094	354.42	81.27						
444	0.1083984375	0.3577148438	1215.77218	354.11	80.96						
448	0.109375	0.3609375	1228.070175	353.80	80.65						
452	0.1103515625	0.3641601563	1240.39517	353.49	80.34						
456	0.111328125	0.3673828125	1252.747253	353.19	80.04						
460	0.1123046875	0.3706054688	1265.126513	352.88	79.73						
464	0.11328125	0.373828125	1277.53304	352.59	79.44						
468	0.1142578125	0.3770507813	1289.966924	352.29	79.14						
472	0.115234375	0.3802734375	1302.428256	352.00	78.85						
476	0.1162109375	0.3834960938	1314.917127	351.70	78.55						
480	0.1171875	0.38671875	1327.433628	351.42	78.27						
484	0.1181640625	0.3899414063	1339.977852	351.13	77.98						
488	0.119140625	0.3931640625	1352.549889	350.85	77.70						
492	0.1201171875	0.3963867188	1365.149834	350.56	77.41						
496	0.12109375	0.399609375	1377.777778	350.29	77.14						
500	0.1220703125	0.4028320313	1390.433815	350.01	76.86						
504	0.123046875	0.4060546875	1403.11804	349.74	76.59						
508	0.1240234375	0.4092773438	1415.830546	349.46	76.31						
512	0.125	0.4125	1428.571429	349.19	76.04						
516	0.1259765625	0.4157226563	1441.340782	348.93	75.78						
520	0.126953125	0.4189453125	1454.138702	348.66	75.51						
524	0.1279296875	0.4221679688	1466.965286	348.40	75.25						
528	0.12890625	0.425390625	1479.820628	348.14	74.99						
532	0.1298828125	0.4286132813	1492.704826	347.88	74.73						
536	0.130859375	0.4318359375	1505.617978	347.62	74.47						
540	0.1318359375	0.4350585938	1518.56018	347.36	74.21						
544	0.1328125	0.43828125	1531.531532	347.11	73.96						
548	0.1337890625	0.4415039063	1544.532131	346.86	73.71						
552	0.134765625	0.4447265625	1557.562077	346.61	73.46						
556	0.1357421875	0.4479492188	1570.621469	346.36	73.21						
560	0.13671875	0.451171875	1583.710407	346.11	72.96						
564	0.1376953125	0.4543945313	1596.828992	345.87	72.72						
568	0.138671875	0.4576171875	1609.977324	345.63	72.48						
572	0.1396484375	0.4608398438	1623.155505	345.39	72.24						
576	0.140625	0.4640625	1636.363636	345.15	72.00						
580	0.1416015625	0.4672851563	1649.60182	344.91	71.76						
584	0.142578125	0.4705078125	1662.870159	344.67	71.52						
588	0.1435546875	0.4737304688	1676.168757	344.44	71.29						
592	0.14453125	0.476953125	1689.497717	344.21	71.06						
596	0.1455078125	0.4801757813	1702.857143	343.98	70.83						
600	0.146484375	0.4833984375	1716.24714	343.75	70.60						
604	0.1474609375	0.4866210938	1729.667812	343.52	70.37						
608	0.1484375	0.48984375	1743.119266	343.29	70.14						
612	0.1494140625	0.4930664063	1756.601607	343.07	69.92						
616	0.150390625	0.4962890625	1770.114943	342.84	69.69						
620	0.1513671875	0.4995117188	1783.659379	342.62	69.47						
624	0.15234375	0.502734375	1797.235023	342.40	69.25						
628	0.1533203125	0.5059570313	1810.841984	342.18	69.03						
632	0.154296875	0.5091796875	1824.48037	341.96	68.81						
636	0.1552734375	0.5124023438	1838.150289	341.75	68.60						
640	0.15625	0.515625	1851.851852	341.53	68.38						
644	0.1572265625	0.5188476563	1865.585168	341.32	68.17						
648	0.158203125	0.5220703125	1879.350348	341.11	67.96						
652	0.1591796875	0.5252929688	1893.147503	340.89	67.74						
656	0.16015625	0.528515625	1906.976744	340.68	67.53						
660	0.1611328125	0.5317382813	1920.838184	340.48	67.33						
664	0.162109375	0.5349609375	1934.731935	340.27	67.12						
668	0.1630859375	0.5381835938	1948.65811	340.06	66.91						
672	0.1640625	0.54140625	1962.616822	339.86	66.71						
676	0.1650390625	0.5446289063	1976.608187	339.65	66.50						
680	0.166015625	0.5478515625	1990.632319	339.45	66.30						
684	0.1669921875	0.5510742188	2004.689332	339.25	66.10						
688	0.16796875	0.554296875	2018.779343	339.05	65.90						
692	0.1689453125	0.5575195313	2032.902468	338.85	65.70						
696	0.169921875	0.5607421875	2047.058824	338.65	65.50						
700	0.1708984375	0.5639648438	2061.248528	338.46	65.31						
704	0.171875	0.5671875	2075.471698	338.26	65.11						
708	0.1728515625	0.5704101563	2089.728453	338.06	64.91						
712	0.173828125	0.5736328125	2104.018913	337.87	64.72						
716	0.1748046875	0.5768554688	2118.343195	337.68	64.53						
720	0.17578125	0.580078125	2132.701422	337.49	64.34						
724	0.1767578125	0.5833007813	2147.093713	337.30	64.15						
728	0.177734375	0.5865234375	2161.52019	337.11	63.96						
732	0.1787109375	0.5897460938	2175.980975	336.92	63.77						
736	0.1796875	0.59296875	2190.47619	336.73	63.58						
740	0.1806640625	0.5961914063	2205.005959	336.54	63.39						
744	0.181640625	0.5994140625	2219.570406	336.36	63.21						
748	0.1826171875	0.6026367188	2234.169654	336.17	63.02						
752	0.18359375	0.605859375	2248.803828	335.99	62.84						
756	0.1845703125	0.6090820313	2263.473054	335.81	62.66						
760	0.185546875	0.6123046875	2278.177458	335.62	62.47						
764	0.1865234375	0.6155273438	2292.917167	335.44	62.29						
768	0.1875	0.61875	2307.692308	335.26	62.11						
772	0.1884765625	0.6219726563	2322.503008	335.08	61.93						
776	0.189453125	0.6251953125	2337.349398	334.91	61.76						
780	0.1904296875	0.6284179688	2352.231604	334.73	61.58						
784	0.19140625	0.631640625	2367.149758	334.55	61.40						
788	0.1923828125	0.6348632813	2382.10399	334.38	61.23						
792	0.193359375	0.6380859375	2397.094431	334.20	61.05						
796	0.1943359375	0.6413085938	2412.121212	334.03	60.88						
800	0.1953125	0.64453125	2427.184466	333.85	60.70						
804	0.1962890625	0.6477539063	2442.284326	333.68	60.53						
808	0.197265625	0.6509765625	2457.420925	333.51	60.36						
812	0.1982421875	0.6541992188	2472.594397	333.34	60.19						
816	0.19921875	0.657421875	2487.804878	333.17	60.02						
820	0.2001953125	0.6606445313	2503.052503	333.00	59.85						
824	0.201171875	0.6638671875	2518.337408	332.83	59.68						
828	0.2021484375	0.6670898438	2533.659731	332.66	59.51						
832	0.203125	0.6703125	2549.019608	332.50	59.35						
836	0.2041015625	0.6735351563	2564.417178	332.33	59.18						
840	0.205078125	0.6767578125	2579.85258	332.16	59.01						
844	0.2060546875	0.6799804688	2595.325953	332.00	58.85						
848	0.20703125	0.683203125	2610.837438	331.83	58.68						
852	0.2080078125	0.6864257813	2626.387176	331.67	58.52						
856	0.208984375	0.6896484375	2641.975309	331.51	58.36						
860	0.2099609375	0.6928710938	2657.601978	331.35	58.20						
864	0.2109375	0.69609375	2673.267327	331.19	58.04						
868	0.2119140625	0.6993164063	2688.971499	331.02	57.87						
872	0.212890625	0.7025390625	2704.71464	330.86	57.71						
876	0.2138671875	0.7057617188	2720.496894	330.71	57.56						
880	0.21484375	0.708984375	2736.318408	330.55	57.40						
884	0.2158203125	0.7122070313	2752.179328	330.39	57.24						
888	0.216796875	0.7154296875	2768.0798	330.23	57.08						
892	0.2177734375	0.7186523438	2784.019975	330.08	56.93						
896	0.21875	0.721875	2800	329.92	56.77						
900	0.2197265625	0.7250976563	2816.020025	329.76	56.61						
904	0.220703125	0.7283203125	2832.080201	329.61	56.46						
908	0.2216796875	0.7315429688	2848.180678	329.45	56.30						
912	0.22265625	0.734765625	2864.321608	329.30	56.15						
916	0.2236328125	0.7379882813	2880.503145	329.15	56.00						
920	0.224609375	0.7412109375	2896.725441	329.00	55.85						
924	0.2255859375	0.7444335938	2912.988651	328.84	55.69						
928	0.2265625	0.74765625	2929.292929	328.69	55.54						
932	0.2275390625	0.7508789063	2945.638432	328.54	55.39						
936	0.228515625	0.7541015625	2962.025316	328.39	55.24						
940	0.2294921875	0.7573242188	2978.453739	328.24	55.09						
944	0.23046875	0.760546875	2994.923858	328.09	54.94						
948	0.2314453125	0.7637695313	3011.435832	327.95	54.80						
952	0.232421875	0.7669921875	3027.989822	327.80	54.65						
956	0.2333984375	0.7702148438	3044.585987	327.65	54.50						
960	0.234375	0.7734375	3061.22449	327.50	54.35						
964	0.2353515625	0.7766601563	3077.905492	327.36	54.21						
968	0.236328125	0.7798828125	3094.629156	327.21	54.06						
972	0.2373046875	0.7831054688	3111.395647	327.07	53.92						
976	0.23828125	0.786328125	3128.205128	326.92	53.77						
980	0.2392578125	0.7895507813	3145.057766	326.78	53.63						
984	0.240234375	0.7927734375	3161.953728	326.63	53.48						
988	0.2412109375	0.7959960938	3178.893179	326.49	53.34						
992	0.2421875	0.79921875	3195.876289	326.35	53.20						
996	0.2431640625	0.8024414063	3212.903226	326.21	53.06						
1000	0.244140625	0.8056640625	3229.97416	326.07	52.92						
1004	0.2451171875	0.8088867188	3247.089263	325.92	52.77						
1008	0.24609375	0.812109375	3264.248705	325.78	52.63						
1012	0.2470703125	0.8153320313	3281.452659	325.64	52.49						
1016	0.248046875	0.8185546875	3298.701299	325.50	52.35						
1020	0.2490234375	0.8217773438	3315.994798	325.37	52.22						
1024	0.25	0.825	3333.333333	325.23	52.08						
1028	0.2509765625	0.8282226563	3350.71708	325.09	51.94						
1032	0.251953125	0.8314453125	3368.146214	324.95	51.80						
1036	0.2529296875	0.8346679688	3385.620915	324.81	51.66						
1040	0.25390625	0.837890625	3403.141361	324.68	51.53						
1044	0.2548828125	0.8411132813	3420.707733	324.54	51.39						
1048	0.255859375	0.8443359375	3438.32021	324.40	51.25						
1052	0.2568359375	0.8475585938	3455.978975	324.27	51.12						
1056	0.2578125	0.85078125	3473.684211	324.13	50.98						
1060	0.2587890625	0.8540039063	3491.4361	324.00	50.85						
1064	0.259765625	0.8572265625	3509.234828	323.86	50.71						
1068	0.2607421875	0.8604492188	3527.080581	323.73	50.58						
1072	0.26171875	0.863671875	3544.973545	323.60	50.45						
1076	0.2626953125	0.8668945313	3562.913907	323.46	50.31						
1080	0.263671875	0.8701171875	3580.901857	323.33	50.18						
1084	0.2646484375	0.8733398438	3598.937583	323.20	50.05						
1088	0.265625	0.8765625	3617.021277	323.07	49.92						
1092	0.2666015625	0.8797851563	3635.153129	322.94	49.79						
1096	0.267578125	0.8830078125	3653.333333	322.81	49.66						
1100	0.2685546875	0.8862304688	3671.562083	322.68	49.53						
1104	0.26953125	0.889453125	3689.839572	322.55	49.40						
1108	0.2705078125	0.8926757813	3708.165997	322.42	49.27						
1112	0.271484375	0.8958984375	3726.541555	322.29	49.14						
1116	0.2724609375	0.8991210938	3744.966443	322.16	49.01						
1120	0.2734375	0.90234375	3763.44086	322.03	48.88						
1124	0.2744140625	0.9055664063	3781.965007	321.90	48.75						
1128	0.275390625	0.9087890625	3800.539084	321.77	48.62						
1132	0.2763671875	0.9120117188	3819.163293	321.64	48.49						
1136	0.27734375	0.915234375	3837.837838	321.52	48.37						
1140	0.2783203125	0.9184570313	3856.562923	321.39	48.24						
1144	0.279296875	0.9216796875	3875.338753	321.26	48.11						
1148	0.2802734375	0.9249023438	3894.165536	321.14	47.99						
1152	0.28125	0.928125	3913.043478	321.01	47.86						
1156	0.2822265625	0.9313476563	3931.972789	320.89	47.74						
1160	0.283203125	0.9345703125	3950.953678	320.76	47.61						
1164	0.2841796875	0.9377929688	3969.986357	320.64	47.49						
1168	0.28515625	0.941015625	3989.071038	320.51	47.36						
1172	0.2861328125	0.9442382813	4008.207934	320.39	47.24						
1176	0.287109375	0.9474609375	4027.39726	320.27	47.12						
1180	0.2880859375	0.9506835938	4046.639232	320.14	46.99						
1184	0.2890625	0.95390625	4065.934066	320.02	46.87						
1188	0.2900390625	0.9571289063	4085.281981	319.90	46.75						
1192	0.291015625	0.9603515625	4104.683196	319.77	46.62						
1196	0.2919921875	0.9635742188	4124.137931	319.65	46.50						
1200	0.29296875	0.966796875	4143.646409	319.53	46.38						
1204	0.2939453125	0.9700195313	4163.208852	319.41	46.26						
1208	0.294921875	0.9732421875	4182.825485	319.29	46.14						
1212	0.2958984375	0.9764648438	4202.496533	319.17	46.02						
1216	0.296875	0.9796875	4222.222222	319.05	45.90						
1220	0.2978515625	0.9829101563	4242.002782	318.93	45.78						
1224	0.298828125	0.9861328125	4261.83844	318.81	45.66						
1228	0.2998046875	0.9893554688	4281.729428	318.69	45.54						
1232	0.30078125	0.992578125	4301.675978	318.57	45.42						
1236	0.3017578125	0.9958007813	4321.678322	318.45	45.30						
1240	0.302734375	0.9990234375	4341.736695	318.33	45.18						
1244	0.3037109375	1.002246094	4361.851332	318.21	45.06						
1248	0.3046875	1.00546875	4382.022472	318.09	44.94						
1252	0.3056640625	1.008691406	4402.250352	317.98	44.83						
1256	0.306640625	1.011914063	4422.535211	317.86	44.71						
1260	0.3076171875	1.015136719	4442.877292	317.74	44.59						
1264	0.30859375	1.018359375	4463.276836	317.63	44.48						
1268	0.3095703125	1.021582031	4483.734088	317.51	44.36						
1272	0.310546875	1.024804688	4504.249292	317.39	44.24						
1276	0.3115234375	1.028027344	4524.822695	317.28	44.13						
1280	0.3125	1.03125	4545.454545	317.16	44.01						
1284	0.3134765625	1.034472656	4566.145092	317.05	43.90						
1288	0.314453125	1.037695313	4586.894587	316.93	43.78						
1292	0.3154296875	1.040917969	4607.703281	316.82	43.67						
1296	0.31640625	1.044140625	4628.571429	316.70	43.55						
1300	0.3173828125	1.047363281	4649.499285	316.59	43.44						
1304	0.318359375	1.050585938	4670.487106	316.47	43.32						
1308	0.3193359375	1.053808594	4691.535151	316.36	43.21						
1312	0.3203125	1.05703125	4712.643678	316.24	43.09						
1316	0.3212890625	1.060253906	4733.81295	316.13	42.98						
1320	0.322265625	1.063476563	4755.043228	316.02	42.87						
1324	0.3232421875	1.066699219	4776.334776	315.90	42.75						
1328	0.32421875	1.069921875	4797.687861	315.79	42.64						
1332	0.3251953125	1.073144531	4819.10275	315.68	42.53						
1336	0.326171875	1.076367188	4840.57971	315.57	42.42						
1340	0.3271484375	1.079589844	4862.119013	315.46	42.31						
1344	0.328125	1.0828125	4883.72093	315.34	42.19						
1348	0.3291015625	1.086035156	4905.385735	315.23	42.08						
1352	0.330078125	1.089257813	4927.113703	315.12	41.97						
1356	0.3310546875	1.092480469	4948.905109	315.01	41.86						
1360	0.33203125	1.095703125	4970.760234	314.90	41.75						
1364	0.3330078125	1.098925781	4992.679356	314.79	41.64						
1368	0.333984375	1.102148438	5014.662757	314.68	41.53						
1372	0.3349609375	1.105371094	5036.71072	314.57	41.42						
1376	0.3359375	1.10859375	5058.823529	314.46	41.31						
1380	0.3369140625	1.111816406	5081.001473	314.35	41.20						
1384	0.337890625	1.115039063	5103.244838	314.24	41.09						
1388	0.3388671875	1.118261719	5125.553914	314.13	40.98						
1392	0.33984375	1.121484375	5147.928994	314.02	40.87						
1396	0.3408203125	1.124707031	5170.37037	313.91	40.76						
1400	0.341796875	1.127929688	5192.878338	313.80	40.65						
1404	0.3427734375	1.131152344	5215.453195	313.70	40.55						
1408	0.34375	1.134375	5238.095238	313.59	40.44						
1412	0.3447265625	1.137597656	5260.804769	313.48	40.33						
1416	0.345703125	1.140820313	5283.58209	313.37	40.22						
1420	0.3466796875	1.144042969	5306.427504	313.27	40.12						
1424	0.34765625	1.147265625	5329.341317	313.16	40.01						
1428	0.3486328125	1.150488281	5352.323838	313.05	39.90						
1432	0.349609375	1.153710938	5375.375375	312.94	39.79						
1436	0.3505859375	1.156933594	5398.496241	312.84	39.69						
1440	0.3515625	1.16015625	5421.686747	312.73	39.58						
1444	0.3525390625	1.163378906	5444.94721	312.62	39.47						
1448	0.353515625	1.166601563	5468.277946	312.52	39.37						
1452	0.3544921875	1.169824219	5491.679274	312.41	39.26						
1456	0.35546875	1.173046875	5515.151515	312.31	39.16						
1460	0.3564453125	1.176269531	5538.694992	312.20	39.05						
1464	0.357421875	1.179492188	5562.31003	312.10	38.95						
1468	0.3583984375	1.182714844	5585.996956	311.99	38.84						
1472	0.359375	1.1859375	5609.756098	311.89	38.74						
1476	0.3603515625	1.189160156	5633.587786	311.78	38.63						
1480	0.361328125	1.192382813	5657.492355	311.68	38.53						
1484	0.3623046875	1.195605469	5681.470138	311.57	38.42						
1488	0.36328125	1.198828125	5705.521472	311.47	38.32						
1492	0.3642578125	1.202050781	5729.646697	311.36	38.21						
1496	0.365234375	1.205273438	5753.846154	311.26	38.11						
1500	0.3662109375	1.208496094	5778.120185	311.16	38.01						
1504	0.3671875	1.21171875	5802.469136	311.05	37.90						
1508	0.3681640625	1.214941406	5826.893354	310.95	37.80						
1512	0.369140625	1.218164063	5851.393189	310.85	37.70						
1516	0.3701171875	1.221386719	5875.968992	310.74	37.59						
1520	0.37109375	1.224609375	5900.621118	310.64	37.49						
1524	0.3720703125	1.227832031	5925.349922	310.54	37.39						
1528	0.373046875	1.231054688	5950.155763	310.44	37.29						
1532	0.3740234375	1.234277344	5975.039002	310.33	37.18						
1536	0.375	1.2375	6000	310.23	37.08						
1540	0.3759765625	1.240722656	6025.039124	310.13	36.98						
1544	0.376953125	1.243945313	6050.15674	310.03	36.88						
1548	0.3779296875	1.247167969	6075.353218	309.93	36.78						
1552	0.37890625	1.250390625	6100.628931	309.83	36.68						
1556	0.3798828125	1.253613281	6125.984252	309.72	36.57						
1560	0.380859375	1.256835938	6151.419558	309.62	36.47						
1564	0.3818359375	1.260058594	6176.935229	309.52	36.37						
1568	0.3828125	1.26328125	6202.531646	309.42	36.27						
1572	0.3837890625	1.266503906	6228.209192	309.32	36.17						
1576	0.384765625	1.269726563	6253.968254	309.22	36.07						
1580	0.3857421875	1.272949219	6279.809221	309.12	35.97						
1584	0.38671875	1.276171875	6305.732484	309.02	35.87						
1588	0.3876953125	1.279394531	6331.738437	308.92	35.77						
1592	0.388671875	1.282617188	6357.827476	308.82	35.67						
1596	0.3896484375	1.285839844	6384	308.72	35.57						
1600	0.390625	1.2890625	6410.25641	308.62	35.47						
1604	0.3916015625	1.292285156	6436.597111	308.52	35.37						
1608	0.392578125	1.295507813	6463.022508	308.42	35.27						
1612	0.3935546875	1.298730469	6489.533011	308.32	35.17						
1616	0.39453125	1.301953125	6516.129032	308.22	35.07						
1620	0.3955078125	1.305175781	6542.810985	308.12	34.97						
1624	0.396484375	1.308398438	6569.579288	308.03	34.88						
1628	0.3974609375	1.311621094	6596.43436	307.93	34.78						
1632	0.3984375	1.31484375	6623.376623	307.83	34.68						
1636	0.3994140625	1.318066406	6650.406504	307.73	34.58						
1640	0.400390625	1.321289063	6677.52443	307.63	34.48						
1644	0.4013671875	1.324511719	6704.730832	307.53	34.38						
1648	0.40234375	1.327734375	6732.026144	307.44	34.29						
1652	0.4033203125	1.330957031	6759.410802	307.34	34.19						
1656	0.404296875	1.334179688	6786.885246	307.24	34.09						
1660	0.4052734375	1.337402344	6814.449918	307.14	33.99						
1664	0.40625	1.340625	6842.105263	307.05	33.90						
1668	0.4072265625	1.343847656	6869.85173	306.95	33.80						
1672	0.408203125	1.347070313	6897.689769	306.85	33.70						
1676	0.4091796875	1.350292969	6925.619835	306.75	33.60						
1680	0.41015625	1.353515625	6953.642384	306.66	33.51						
1684	0.4111328125	1.356738281	6981.757877	306.56	33.41						
1688	0.412109375	1.359960938	7009.966777	306.46	33.31						
1692	0.4130859375	1.363183594	7038.269551	306.37	33.22						
1696	0.4140625	1.36640625	7066.666667	306.27	33.12						
1700	0.4150390625	1.369628906	7095.158598	306.17	33.02						
1704	0.416015625	1.372851563	7123.745819	306.08	32.93						
1708	0.4169921875	1.376074219	7152.428811	305.98	32.83						
1712	0.41796875	1.379296875	7181.208054	305.89	32.74						
1716	0.4189453125	1.382519531	7210.084034	305.79	32.64						
1720	0.419921875	1.385742188	7239.057239	305.69	32.54						
1724	0.4208984375	1.388964844	7268.128162	305.60	32.45						
1728	0.421875	1.3921875	7297.297297	305.50	32.35						
1732	0.4228515625	1.395410156	7326.565144	305.41	32.26						
1736	0.423828125	1.398632813	7355.932203	305.31	32.16						
1740	0.4248046875	1.401855469	7385.398981	305.22	32.07						
1744	0.42578125	1.405078125	7414.965986	305.12	31.97						
1748	0.4267578125	1.408300781	7444.633731	305.03	31.88						
1752	0.427734375	1.411523438	7474.40273	304.93	31.78						
1756	0.4287109375	1.414746094	7504.273504	304.84	31.69						
1760	0.4296875	1.41796875	7534.246575	304.74	31.59						
1764	0.4306640625	1.421191406	7564.32247	304.65	31.50						
1768	0.431640625	1.424414063	7594.501718	304.55	31.40						
1772	0.4326171875	1.427636719	7624.784854	304.46	31.31						
1776	0.43359375	1.430859375	7655.172414	304.37	31.22						
1780	0.4345703125	1.434082031	7685.66494	304.27	31.12						
1784	0.435546875	1.437304688	7716.262976	304.18	31.03						
1788	0.4365234375	1.440527344	7746.967071	304.08	30.93						
1792	0.4375	1.44375	7777.777778	303.99	30.84						
1796	0.4384765625	1.446972656	7808.695652	303.90	30.75						
1800	0.439453125	1.450195313	7839.721254	303.80	30.65						
1804	0.4404296875	1.453417969	7870.855148	303.71	30.56						
1808	0.44140625	1.456640625	7902.097902	303.62	30.47						
1812	0.4423828125	1.459863281	7933.450088	303.52	30.37						
1816	0.443359375	1.463085938	7964.912281	303.43	30.28						
1820	0.4443359375	1.466308594	7996.485062	303.34	30.19						
1824	0.4453125	1.46953125	8028.169014	303.24	30.09						
1828	0.4462890625	1.472753906	8059.964727	303.15	30.00						
1832	0.447265625	1.475976563	8091.872792	303.06	29.91						
1836	0.4482421875	1.479199219	8123.893805	302.96	29.81						
1840	0.44921875	1.482421875	8156.028369	302.87	29.72						
1844	0.4501953125	1.485644531	8188.277087	302.78	29.63						
1848	0.451171875	1.488867188	8220.640569	302.69	29.54						
1852	0.4521484375	1.492089844	8253.11943	302.59	29.44						
1856	0.453125	1.4953125	8285.714286	302.50	29.35						
1860	0.4541015625	1.498535156	8318.42576	302.41	29.26						
1864	0.455078125	1.501757813	8351.25448	302.32	29.17						
1868	0.4560546875	1.504980469	8384.201077	302.22	29.07						
1872	0.45703125	1.508203125	8417.266187	302.13	28.98						
1876	0.4580078125	1.511425781	8450.45045	302.04	28.89						
1880	0.458984375	1.514648438	8483.754513	301.95	28.80						
1884	0.4599609375	1.517871094	8517.179024	301.86	28.71						
1888	0.4609375	1.52109375	8550.724638	301.77	28.62						
1892	0.4619140625	1.524316406	8584.392015	301.67	28.52						
1896	0.462890625	1.527539063	8618.181818	301.58	28.43						
1900	0.4638671875	1.530761719	8652.094718	301.49	28.34						
1904	0.46484375	1.533984375	8686.131387	301.40	28.25						
1908	0.4658203125	1.537207031	8720.292505	301.31	28.16						
1912	0.466796875	1.540429688	8754.578755	301.22	28.07						
1916	0.4677734375	1.543652344	8788.990826	301.13	27.98						
1920	0.46875	1.546875	8823.529412	301.03	27.88						
1924	0.4697265625	1.550097656	8858.195212	300.94	27.79						
1928	0.470703125	1.553320313	8892.98893	300.85	27.70						
1932	0.4716796875	1.556542969	8927.911275	300.76	27.61						
1936	0.47265625	1.559765625	8962.962963	300.67	27.52						
1940	0.4736328125	1.562988281	8998.144712	300.58	27.43						
1944	0.474609375	1.566210938	9033.457249	300.49	27.34						
1948	0.4755859375	1.569433594	9068.901304	300.40	27.25						
1952	0.4765625	1.57265625	9104.477612	300.31	27.16						
1956	0.4775390625	1.575878906	9140.186916	300.22	27.07						
1960	0.478515625	1.579101563	9176.029963	300.13	26.98						
1964	0.4794921875	1.582324219	9212.007505	300.04	26.89						
1968	0.48046875	1.585546875	9248.120301	299.95	26.80						
1972	0.4814453125	1.588769531	9284.369115	299.86	26.71						
1976	0.482421875	1.591992188	9320.754717	299.76	26.61						
1980	0.4833984375	1.595214844	9357.277883	299.67	26.52						
1984	0.484375	1.5984375	9393.939394	299.58	26.43						
1988	0.4853515625	1.601660156	9430.740038	299.49	26.34						
1992	0.486328125	1.604882813	9467.680608	299.40	26.25						
1996	0.4873046875	1.608105469	9504.761905	299.31	26.16						
2000	0.48828125	1.611328125	9541.984733	299.22	26.07						
2004	0.4892578125	1.614550781	9579.349904	299.13	25.98						
2008	0.490234375	1.617773438	9616.858238	299.05	25.90						
2012	0.4912109375	1.620996094	9654.510557	298.96	25.81						
2016	0.4921875	1.62421875	9692.307692	298.87	25.72						
2020	0.4931640625	1.627441406	9730.250482	298.78	25.63						
2024	0.494140625	1.630664063	9768.339768	298.69	25.54						
2028	0.4951171875	1.633886719	9806.576402	298.60	25.45						
2032	0.49609375	1.637109375	9844.96124	298.51	25.36						
2036	0.4970703125	1.640332031	9883.495146	298.42	25.27						
2040	0.498046875	1.643554688	9922.178988	298.33	25.18						
2044	0.4990234375	1.646777344	9961.013645	298.24	25.09						
2048	0.5	1.65	10000	298.15	25.00						
2052	0.5009765625	1.653222656	10039.13894	298.06	24.91						
2056	0.501953125	1.656445313	10078.43137	297.97	24.82						
2060	0.5029296875	1.659667969	10117.87819	297.88	24.73						
2064	0.50390625	1.662890625	10157.48031	297.79	24.64						
2068	0.5048828125	1.666113281	10197.23866	297.70	24.55						
2072	0.505859375	1.669335938	10237.15415	297.62	24.47						
2076	0.5068359375	1.672558594	10277.22772	297.53	24.38						
2080	0.5078125	1.67578125	10317.46032	297.44	24.29						
2084	0.5087890625	1.679003906	10357.85288	297.35	24.20						
2088	0.509765625	1.682226563	10398.40637	297.26	24.11						
2092	0.5107421875	1.685449219	10439.12176	297.17	24.02						
2096	0.51171875	1.688671875	10480	297.08	23.93						
2100	0.5126953125	1.691894531	10521.04208	296.99	23.84						
2104	0.513671875	1.695117188	10562.249	296.90	23.75						
2108	0.5146484375	1.698339844	10603.62173	296.82	23.67						
2112	0.515625	1.7015625	10645.16129	296.73	23.58						
2116	0.5166015625	1.704785156	10686.86869	296.64	23.49						
2120	0.517578125	1.708007813	10728.74494	296.55	23.40						
2124	0.5185546875	1.711230469	10770.79108	296.46	23.31						
2128	0.51953125	1.714453125	10813.00813	296.37	23.22						
2132	0.5205078125	1.717675781	10855.39715	296.28	23.13						
2136	0.521484375	1.720898438	10897.95918	296.20	23.05						
2140	0.5224609375	1.724121094	10940.6953	296.11	22.96						
2144	0.5234375	1.72734375	10983.60656	296.02	22.87						
2148	0.5244140625	1.730566406	11026.69405	295.93	22.78						
2152	0.525390625	1.733789063	11069.95885	295.84	22.69						
2156	0.5263671875	1.737011719	11113.40206	295.75	22.60						
2160	0.52734375	1.740234375	11157.02479	295.67	22.52						
2164	0.5283203125	1.743457031	11200.82816	295.58	22.43						
2168	0.529296875	1.746679688	11244.81328	295.49	22.34						
2172	0.5302734375	1.749902344	11288.98129	295.40	22.25						
2176	0.53125	1.753125	11333.33333	295.31	22.16						
2180	0.5322265625	1.756347656	11377.87056	295.23	22.08						
2184	0.533203125	1.759570313	11422.59414	295.14	21.99						
2188	0.5341796875	1.762792969	11467.50524	295.05	21.90						
2192	0.53515625	1.766015625	11512.60504	294.96	21.81						
2196	0.5361328125	1.769238281	11557.89474	294.87	21.72						
2200	0.537109375	1.772460938	11603.37553	294.79	21.64						
2204	0.5380859375	1.775683594	11649.04863	294.70	21.55						
2208	0.5390625	1.77890625	11694.91525	294.61	21.46						
2212	0.5400390625	1.782128906	11740.97665	294.52	21.37						
2216	0.541015625	1.785351563	11787.23404	294.43	21.28						
2220	0.5419921875	1.788574219	11833.6887	294.35	21.20						
2224	0.54296875	1.791796875	11880.34188	294.26	21.11						
2228	0.5439453125	1.795019531	11927.19486	294.17	21.02						
2232	0.544921875	1.798242188	11974.24893	294.08	20.93						
2236	0.5458984375	1.801464844	12021.50538	293.99	20.84						
2240	0.546875	1.8046875	12068.96552	293.91	20.76						
2244	0.5478515625	1.807910156	12116.63067	293.82	20.67						
2248	0.548828125	1.811132813	12164.50216	293.73	20.58						
2252	0.5498046875	1.814355469	12212.58134	293.64	20.49						
2256	0.55078125	1.817578125	12260.86957	293.55	20.40						
2260	0.5517578125	1.820800781	12309.36819	293.47	20.32						
2264	0.552734375	1.824023438	12358.0786	293.38	20.23						
2268	0.5537109375	1.827246094	12407.00219	293.29	20.14						
2272	0.5546875	1.83046875	12456.14035	293.20	20.05						
2276	0.5556640625	1.833691406	12505.49451	293.12	19.97						
2280	0.556640625	1.836914063	12555.06608	293.03	19.88						
2284	0.5576171875	1.840136719	12604.85651	292.94	19.79						
2288	0.55859375	1.843359375	12654.86726	292.85	19.70						
2292	0.5595703125	1.846582031	12705.09978	292.77	19.62						
2296	0.560546875	1.849804688	12755.55556	292.68	19.53						
2300	0.5615234375	1.853027344	12806.23608	292.59	19.44						
2304	0.5625	1.85625	12857.14286	292.50	19.35						
2308	0.5634765625	1.859472656	12908.2774	292.41	19.26						
2312	0.564453125	1.862695313	12959.64126	292.33	19.18						
2316	0.5654296875	1.865917969	13011.23596	292.24	19.09						
2320	0.56640625	1.869140625	13063.06306	292.15	19.00						
2324	0.5673828125	1.872363281	13115.12415	292.06	18.91						
2328	0.568359375	1.875585938	13167.42081	291.98	18.83						
2332	0.5693359375	1.878808594	13219.95465	291.89	18.74						
2336	0.5703125	1.88203125	13272.72727	291.80	18.65						
2340	0.5712890625	1.885253906	13325.74032	291.71	18.56						
2344	0.572265625	1.888476563	13378.99543	291.62	18.47						
2348	0.5732421875	1.891699219	13432.49428	291.54	18.39						
2352	0.57421875	1.894921875	13486.23853	291.45	18.30						
2356	0.5751953125	1.898144531	13540.22989	291.36	18.21						
2360	0.576171875	1.901367188	13594.47005	291.27	18.12						
2364	0.5771484375	1.904589844	13648.96074	291.19	18.04						
2368	0.578125	1.9078125	13703.7037	291.10	17.95						
2372	0.5791015625	1.911035156	13758.7007	291.01	17.86						
2376	0.580078125	1.914257813	13813.95349	290.92	17.77						
2380	0.5810546875	1.917480469	13869.46387	290.83	17.68						
2384	0.58203125	1.920703125	13925.23364	290.75	17.60						
2388	0.5830078125	1.923925781	13981.26464	290.66	17.51						
2392	0.583984375	1.927148438	14037.55869	290.57	17.42						
2396	0.5849609375	1.930371094	14094.11765	290.48	17.33						
2400	0.5859375	1.93359375	14150.9434	290.40	17.25						
2404	0.5869140625	1.936816406	14208.03783	290.31	17.16						
2408	0.587890625	1.940039063	14265.40284	290.22	17.07						
2412	0.5888671875	1.943261719	14323.04038	290.13	16.98						
2416	0.58984375	1.946484375	14380.95238	290.04	16.89						
2420	0.5908203125	1.949707031	14439.14081	289.96	16.81						
2424	0.591796875	1.952929688	14497.60766	289.87	16.72						
2428	0.5927734375	1.956152344	14556.35492	289.78	16.63						
2432	0.59375	1.959375	14615.38462	289.69	16.54						
2436	0.5947265625	1.962597656	14674.6988	289.60	16.45						
2440	0.595703125	1.965820313	14734.29952	289.52	16.37						
2444	0.5966796875	1.969042969	14794.18886	289.43	16.28						
2448	0.59765625	1.972265625	14854.36893	289.34	16.19						
2452	0.5986328125	1.975488281	14914.84185	289.25	16.10						
2456	0.599609375	1.978710938	14975.60976	289.16	16.01						
2460	0.6005859375	1.981933594	15036.67482	289.08	15.93						
2464	0.6015625	1.98515625	15098.03922	288.99	15.84						
2468	0.6025390625	1.988378906	15159.70516	288.90	15.75						
2472	0.603515625	1.991601563	15221.67488	288.81	15.66						
2476	0.6044921875	1.994824219	15283.95062	288.72	15.57						
2480	0.60546875	1.998046875	15346.53465	288.63	15.48						
2484	0.6064453125	2.001269531	15409.42928	288.55	15.40						
2488	0.607421875	2.004492188	15472.63682	288.46	15.31						
2492	0.6083984375	2.007714844	15536.1596	288.37	15.22						
2496	0.609375	2.0109375	15600	288.28	15.13						
2500	0.6103515625	2.014160156	15664.1604	288.19	15.04						
2504	0.611328125	2.017382813	15728.64322	288.10	14.95						
2508	0.6123046875	2.020605469	15793.45088	288.02	14.87						
2512	0.61328125	2.023828125	15858.58586	287.93	14.78						
2516	0.6142578125	2.027050781	15924.05063	287.84	14.69						
2520	0.615234375	2.030273438	15989.84772	287.75	14.60						
2524	0.6162109375	2.033496094	16055.97964	287.66	14.51						
2528	0.6171875	2.03671875	16122.44898	287.57	14.42						
2532	0.6181640625	2.039941406	16189.25831	287.48	14.33						
2536	0.619140625	2.043164063	16256.41026	287.39	14.24						
2540	0.6201171875	2.046386719	16323.90746	287.31	14.16						
2544	0.62109375	2.049609375	16391.75258	287.22	14.07						
2548	0.6220703125	2.052832031	16459.94832	287.13	13.98						
2552	0.623046875	2.056054688	16528.49741	287.04	13.89						
2556	0.6240234375	2.059277344	16597.4026	286.95	13.80						
2560	0.625	2.0625	16666.66667	286.86	13.71						
2564	0.6259765625	2.065722656	16736.29243	286.77	13.62						
2568	0.626953125	2.068945313	16806.28272	286.68	13.53						
2572	0.6279296875	2.072167969	16876.64042	286.59	13.44						
2576	0.62890625	2.075390625	16947.36842	286.50	13.35						
2580	0.6298828125	2.078613281	17018.46966	286.42	13.27						
2584	0.630859375	2.081835938	17089.94709	286.33	13.18						
2588	0.6318359375	2.085058594	17161.80371	286.24	13.09						
2592	0.6328125	2.08828125	17234.04255	286.15	13.00						
2596	0.6337890625	2.091503906	17306.66667	286.06	12.91						
2600	0.634765625	2.094726563	17379.67914	285.97	12.82						
2604	0.6357421875	2.097949219	17453.08311	285.88	12.73						
2608	0.63671875	2.101171875	17526.88172	285.79	12.64						
2612	0.6376953125	2.104394531	17601.07817	285.70	12.55						
2616	0.638671875	2.107617188	17675.67568	285.61	12.46						
2620	0.6396484375	2.110839844	17750.67751	285.52	12.37						
2624	0.640625	2.1140625	17826.08696	285.43	12.28						
2628	0.6416015625	2.117285156	17901.90736	285.34	12.19						
2632	0.642578125	2.120507813	17978.14208	285.25	12.10						
2636	0.6435546875	2.123730469	18054.79452	285.16	12.01						
2640	0.64453125	2.126953125	18131.86813	285.07	11.92						
2644	0.6455078125	2.130175781	18209.36639	284.98	11.83						
2648	0.646484375	2.133398438	18287.29282	284.89	11.74						
2652	0.6474609375	2.136621094	18365.65097	284.80	11.65						
2656	0.6484375	2.13984375	18444.44444	284.71	11.56						
2660	0.6494140625	2.143066406	18523.67688	284.62	11.47						
2664	0.650390625	2.146289063	18603.35196	284.53	11.38						
2668	0.6513671875	2.149511719	18683.47339	284.44	11.29						
2672	0.65234375	2.152734375	18764.04494	284.35	11.20						
2676	0.6533203125	2.155957031	18845.07042	284.26	11.11						
2680	0.654296875	2.159179688	18926.55367	284.17	11.02						
2684	0.6552734375	2.162402344	19008.49858	284.07	10.92						
2688	0.65625	2.165625	19090.90909	283.98	10.83						
2692	0.6572265625	2.168847656	19173.78917	283.89	10.74						
2696	0.658203125	2.172070313	19257.14286	283.80	10.65						
2700	0.6591796875	2.175292969	19340.97421	283.71	10.56						
2704	0.66015625	2.178515625	19425.28736	283.62	10.47						
2708	0.6611328125	2.181738281	19510.08646	283.53	10.38						
2712	0.662109375	2.184960938	19595.37572	283.44	10.29						
2716	0.6630859375	2.188183594	19681.15942	283.35	10.20						
2720	0.6640625	2.19140625	19767.44186	283.25	10.10						
2724	0.6650390625	2.194628906	19854.22741	283.16	10.01						
2728	0.666015625	2.197851563	19941.52047	283.07	9.92						
2732	0.6669921875	2.201074219	20029.32551	282.98	9.83						
2736	0.66796875	2.204296875	20117.64706	282.89	9.74						
2740	0.6689453125	2.207519531	20206.48968	282.80	9.65						
2744	0.669921875	2.210742188	20295.85799	282.70	9.55						
2748	0.6708984375	2.213964844	20385.75668	282.61	9.46						
2752	0.671875	2.2171875	20476.19048	282.52	9.37						
2756	0.6728515625	2.220410156	20567.16418	282.43	9.28						
2760	0.673828125	2.223632813	20658.68263	282.33	9.18						
2764	0.6748046875	2.226855469	20750.75075	282.24	9.09						
2768	0.67578125	2.230078125	20843.37349	282.15	9.00						
2772	0.6767578125	2.233300781	20936.55589	282.06	8.91						
2776	0.677734375	2.236523438	21030.30303	281.96	8.81						
2780	0.6787109375	2.239746094	21124.62006	281.87	8.72						
2784	0.6796875	2.24296875	21219.5122	281.78	8.63						
2788	0.6806640625	2.246191406	21314.98471	281.69	8.54						
2792	0.681640625	2.249414063	21411.04294	281.59	8.44						
2796	0.6826171875	2.252636719	21507.69231	281.50	8.35						
2800	0.68359375	2.255859375	21604.93827	281.41	8.26						
2804	0.6845703125	2.259082031	21702.78638	281.31	8.16						
2808	0.685546875	2.262304688	21801.24224	281.22	8.07						
2812	0.6865234375	2.265527344	21900.31153	281.13	7.98						
2816	0.6875	2.26875	22000	281.03	7.88						
2820	0.6884765625	2.271972656	22100.31348	280.94	7.79						
2824	0.689453125	2.275195313	22201.25786	280.84	7.69						
2828	0.6904296875	2.278417969	22302.83912	280.75	7.60						
2832	0.69140625	2.281640625	22405.06329	280.66	7.51						
2836	0.6923828125	2.284863281	22507.93651	280.56	7.41						
2840	0.693359375	2.288085938	22611.46497	280.47	7.32						
2844	0.6943359375	2.291308594	22715.65495	280.37	7.22						
2848	0.6953125	2.29453125	22820.51282	280.28	7.13						
2852	0.6962890625	2.297753906	22926.04502	280.18	7.03						
2856	0.697265625	2.300976563	23032.25806	280.09	6.94						
2860	0.6982421875	2.304199219	23139.15858	279.99	6.84						
2864	0.69921875	2.307421875	23246.75325	279.90	6.75						
2868	0.7001953125	2.310644531	23355.04886	279.80	6.65						
2872	0.701171875	2.313867188	23464.05229	279.71	6.56						
2876	0.7021484375	2.317089844	23573.77049	279.61	6.46						
2880	0.703125	2.3203125	23684.21053	279.52	6.37						
2884	0.7041015625	2.323535156	23795.37954	279.42	6.27						
2888	0.705078125	2.326757813	23907.28477	279.33	6.18						
2892	0.7060546875	2.329980469	24019.93355	279.23	6.08						
2896	0.70703125	2.333203125	24133.33333	279.13	5.98						
2900	0.7080078125	2.336425781	24247.49164	279.04	5.89						
2904	0.708984375	2.339648438	24362.41611	278.94	5.79						
2908	0.7099609375	2.342871094	24478.11448	278.84	5.69						
2912	0.7109375	2.34609375	24594.59459	278.75	5.60						
2916	0.7119140625	2.349316406	24711.86441	278.65	5.50						
2920	0.712890625	2.352539063	24829.93197	278.55	5.40						
2924	0.7138671875	2.355761719	24948.80546	278.46	5.31						
2928	0.71484375	2.358984375	25068.49315	278.36	5.21						
2932	0.7158203125	2.362207031	25189.00344	278.26	5.11						
2936	0.716796875	2.365429688	25310.34483	278.17	5.02						
2940	0.7177734375	2.368652344	25432.52595	278.07	4.92						
2944	0.71875	2.371875	25555.55556	277.97	4.82						
2948	0.7197265625	2.375097656	25679.44251	277.87	4.72						
2952	0.720703125	2.378320313	25804.1958	277.77	4.62						
2956	0.7216796875	2.381542969	25929.82456	277.68	4.53						
2960	0.72265625	2.384765625	26056.33803	277.58	4.43						
2964	0.7236328125	2.387988281	26183.74558	277.48	4.33						
2968	0.724609375	2.391210938	26312.05674	277.38	4.23						
2972	0.7255859375	2.394433594	26441.28114	277.28	4.13						
2976	0.7265625	2.39765625	26571.42857	277.18	4.03						
2980	0.7275390625	2.400878906	26702.50896	277.08	3.93						
2984	0.728515625	2.404101563	26834.53237	276.99	3.84						
2988	0.7294921875	2.407324219	26967.50903	276.89	3.74						
2992	0.73046875	2.410546875	27101.44928	276.79	3.64						
2996	0.7314453125	2.413769531	27236.36364	276.69	3.54						
3000	0.732421875	2.416992188	27372.26277	276.59	3.44						
3004	0.7333984375	2.420214844	27509.15751	276.49	3.34						
3008	0.734375	2.4234375	27647.05882	276.39	3.24						
3012	0.7353515625	2.426660156	27785.97786	276.29	3.14						
3016	0.736328125	2.429882813	27925.92593	276.19	3.04						
3020	0.7373046875	2.433105469	28066.9145	276.08	2.93						
3024	0.73828125	2.436328125	28208.95522	275.98	2.83						
3028	0.7392578125	2.439550781	28352.05993	275.88	2.73						
3032	0.740234375	2.442773438	28496.2406	275.78	2.63						
3036	0.7412109375	2.445996094	28641.50943	275.68	2.53						
3040	0.7421875	2.44921875	28787.87879	275.58	2.43						
3044	0.7431640625	2.452441406	28935.36122	275.48	2.33						
3048	0.744140625	2.455664063	29083.96947	275.37	2.22						
3052	0.7451171875	2.458886719	29233.71648	275.27	2.12						
3056	0.74609375	2.462109375	29384.61538	275.17	2.02						
3060	0.7470703125	2.465332031	29536.67954	275.07	1.92						
3064	0.748046875	2.468554688	29689.92248	274.96	1.81						
3068	0.7490234375	2.471777344	29844.35798	274.86	1.71						
3072	0.75	2.475	30000	274.76	1.61						
3076	0.7509765625	2.478222656	30156.86275	274.65	1.50						
3080	0.751953125	2.481445313	30314.96063	274.55	1.40						
3084	0.7529296875	2.484667969	30474.3083	274.45	1.30						
3088	0.75390625	2.487890625	30634.92063	274.34	1.19						
3092	0.7548828125	2.491113281	30796.81275	274.24	1.09						
3096	0.755859375	2.494335938	30960	274.13	0.98						
3100	0.7568359375	2.497558594	31124.49799	274.03	0.88						
3104	0.7578125	2.50078125	31290.32258	273.92	0.77						
3108	0.7587890625	2.504003906	31457.48988	273.82	0.67						
3112	0.759765625	2.507226563	31626.01626	273.71	0.56						
3116	0.7607421875	2.510449219	31795.91837	273.61	0.46						
3120	0.76171875	2.513671875	31967.21311	273.50	0.35						
3124	0.7626953125	2.516894531	32139.9177	273.40	0.25						
3128	0.763671875	2.520117188	32314.04959	273.29	0.14						
3132	0.7646484375	2.523339844	32489.62656	273.18	0.03						
3136	0.765625	2.5265625	32666.66667	273.08	-0.07						
3140	0.7666015625	2.529785156	32845.18828	272.97	-0.18						
3144	0.767578125	2.533007813	33025.21008	272.86	-0.29						
3148	0.7685546875	2.536230469	33206.75105	272.76	-0.39						
3152	0.76953125	2.539453125	33389.83051	272.65	-0.50						
3156	0.7705078125	2.542675781	33574.46809	272.54	-0.61						
3160	0.771484375	2.545898438	33760.68376	272.43	-0.72						
3164	0.7724609375	2.549121094	33948.49785	272.32	-0.83						
3168	0.7734375	2.55234375	34137.93103	272.21	-0.94						
3172	0.7744140625	2.555566406	34329.00433	272.11	-1.04						
3176	0.775390625	2.558789063	34521.73913	272.00	-1.15						
3180	0.7763671875	2.562011719	34716.15721	271.89	-1.26						
3184	0.77734375	2.565234375	34912.2807	271.78	-1.37						
3188	0.7783203125	2.568457031	35110.13216	271.67	-1.48						
3192	0.779296875	2.571679688	35309.73451	271.56	-1.59						
3196	0.7802734375	2.574902344	35511.11111	271.45	-1.70						
3200	0.78125	2.578125	35714.28571	271.34	-1.81						
3204	0.7822265625	2.581347656	35919.28251	271.22	-1.93						
3208	0.783203125	2.584570313	36126.12613	271.11	-2.04						
3212	0.7841796875	2.587792969	36334.84163	271.00	-2.15						
3216	0.78515625	2.591015625	36545.45455	270.89	-2.26						
3220	0.7861328125	2.594238281	36757.99087	270.78	-2.37						
3224	0.787109375	2.597460938	36972.47706	270.66	-2.49						
3228	0.7880859375	2.600683594	37188.94009	270.55	-2.60						
3232	0.7890625	2.60390625	37407.40741	270.44	-2.71						
3236	0.7900390625	2.607128906	37627.90698	270.33	-2.82						
3240	0.791015625	2.610351563	37850.46729	270.21	-2.94						
3244	0.7919921875	2.613574219	38075.11737	270.10	-3.05						
3248	0.79296875	2.616796875	38301.88679	269.98	-3.17						
3252	0.7939453125	2.620019531	38530.80569	269.87	-3.28						
3256	0.794921875	2.623242188	38761.90476	269.75	-3.40						
3260	0.7958984375	2.626464844	38995.21531	269.64	-3.51						
3264	0.796875	2.6296875	39230.76923	269.52	-3.63						
3268	0.7978515625	2.632910156	39468.59903	269.41	-3.74						
3272	0.798828125	2.636132813	39708.73786	269.29	-3.86						
3276	0.7998046875	2.639355469	39951.21951	269.17	-3.98						
3280	0.80078125	2.642578125	40196.07843	269.06	-4.09						
3284	0.8017578125	2.645800781	40443.34975	268.94	-4.21						
3288	0.802734375	2.649023438	40693.06931	268.82	-4.33						
3292	0.8037109375	2.652246094	40945.27363	268.70	-4.45						
3296	0.8046875	2.65546875	41200	268.59	-4.56						
3300	0.8056640625	2.658691406	41457.28643	268.47	-4.68						
3304	0.806640625	2.661914063	41717.17172	268.35	-4.80						
3308	0.8076171875	2.665136719	41979.69543	268.23	-4.92						
3312	0.80859375	2.668359375	42244.89796	268.11	-5.04						
3316	0.8095703125	2.671582031	42512.82051	267.99	-5.16						
3320	0.810546875	2.674804688	42783.50515	267.87	-5.28						
3324	0.8115234375	2.678027344	43056.99482	267.75	-5.40						
3328	0.8125	2.68125	43333.33333	267.63	-5.52						
3332	0.8134765625	2.684472656	43612.56545	267.50	-5.65						
3336	0.814453125	2.687695313	43894.73684	267.38	-5.77						
3340	0.8154296875	2.690917969	44179.89418	267.26	-5.89						
3344	0.81640625	2.694140625	44468.08511	267.14	-6.01						
3348	0.8173828125	2.697363281	44759.35829	267.01	-6.14						
3352	0.818359375	2.700585938	45053.76344	266.89	-6.26						
3356	0.8193359375	2.703808594	45351.35135	266.76	-6.39						
3360	0.8203125	2.70703125	45652.17391	266.64	-6.51						
3364	0.8212890625	2.710253906	45956.28415	266.51	-6.64						
3368	0.822265625	2.713476563	46263.73626	266.39	-6.76						
3372	0.8232421875	2.716699219	46574.58564	266.26	-6.89						
3376	0.82421875	2.719921875	46888.88889	266.14	-7.01						
3380	0.8251953125	2.723144531	47206.70391	266.01	-7.14						
3384	0.826171875	2.726367188	47528.08989	265.88	-7.27						
3388	0.8271484375	2.729589844	47853.10734	265.76	-7.39						
3392	0.828125	2.7328125	48181.81818	265.63	-7.52						
3396	0.8291015625	2.736035156	48514.28571	265.50	-7.65						
3400	0.830078125	2.739257813	48850.57471	265.37	-7.78						
3404	0.8310546875	2.742480469	49190.75145	265.24	-7.91						
3408	0.83203125	2.745703125	49534.88372	265.11	-8.04						
3412	0.8330078125	2.748925781	49883.04094	264.98	-8.17						
3416	0.833984375	2.752148438	50235.29412	264.85	-8.30						
3420	0.8349609375	2.755371094	50591.71598	264.72	-8.43						
3424	0.8359375	2.75859375	50952.38095	264.58	-8.57						
3428	0.8369140625	2.761816406	51317.36527	264.45	-8.70						
3432	0.837890625	2.765039063	51686.74699	264.32	-8.83						
3436	0.8388671875	2.768261719	52060.60606	264.18	-8.97						
3440	0.83984375	2.771484375	52439.02439	264.05	-9.10						
3444	0.8408203125	2.774707031	52822.08589	263.92	-9.23						
3448	0.841796875	2.777929688	53209.87654	263.78	-9.37						
3452	0.8427734375	2.781152344	53602.48447	263.64	-9.51						
3456	0.84375	2.784375	54000	263.51	-9.64						
3460	0.8447265625	2.787597656	54402.51572	263.37	-9.78						
3464	0.845703125	2.790820313	54810.12658	263.23	-9.92						
3468	0.8466796875	2.794042969	55222.92994	263.09	-10.06						
3472	0.84765625	2.797265625	55641.02564	262.96	-10.19						
3476	0.8486328125	2.800488281	56064.51613	262.82	-10.33						
3480	0.849609375	2.803710938	56493.50649	262.68	-10.47						
3484	0.8505859375	2.806933594	56928.10458	262.54	-10.61						
3488	0.8515625	2.81015625	57368.42105	262.39	-10.76						
3492	0.8525390625	2.813378906	57814.56954	262.25	-10.90						
3496	0.853515625	2.816601563	58266.66667	262.11	-11.04						
3500	0.8544921875	2.819824219	58724.83221	261.97	-11.18						
3504	0.85546875	2.823046875	59189.18919	261.82	-11.33						
3508	0.8564453125	2.826269531	59659.86395	261.68	-11.47						
3512	0.857421875	2.829492188	60136.9863	261.53	-11.62						
3516	0.8583984375	2.832714844	60620.68966	261.39	-11.76						
3520	0.859375	2.8359375	61111.11111	261.24	-11.91						
3524	0.8603515625	2.839160156	61608.39161	261.09	-12.06						
3528	0.861328125	2.842382813	62112.67606	260.95	-12.20						
3532	0.8623046875	2.845605469	62624.11348	260.80	-12.35						
3536	0.86328125	2.848828125	63142.85714	260.65	-12.50						
3540	0.8642578125	2.852050781	63669.06475	260.50	-12.65						
3544	0.865234375	2.855273438	64202.89855	260.35	-12.80						
3548	0.8662109375	2.858496094	64744.52555	260.19	-12.96						
3552	0.8671875	2.86171875	65294.11765	260.04	-13.11						
3556	0.8681640625	2.864941406	65851.85185	259.89	-13.26						
3560	0.869140625	2.868164063	66417.91045	259.73	-13.42						
3564	0.8701171875	2.871386719	66992.4812	259.58	-13.57						
3568	0.87109375	2.874609375	67575.75758	259.42	-13.73						
3572	0.8720703125	2.877832031	68167.93893	259.27	-13.88						
3576	0.873046875	2.881054688	68769.23077	259.11	-14.04						
3580	0.8740234375	2.884277344	69379.84496	258.95	-14.20						
3584	0.875	2.8875	70000	258.79	-14.36						
3588	0.8759765625	2.890722656	70629.92126	258.63	-14.52						
3592	0.876953125	2.893945313	71269.84127	258.47	-14.68						
3596	0.8779296875	2.897167969	71920	258.31	-14.84						
3600	0.87890625	2.900390625	72580.64516	258.14	-15.01						
3604	0.8798828125	2.903613281	73252.03252	257.98	-15.17						
3608	0.880859375	2.906835938	73934.42623	257.81	-15.34						
3612	0.8818359375	2.910058594	74628.09917	257.65	-15.50						
3616	0.8828125	2.91328125	75333.33333	257.48	-15.67						
3620	0.8837890625	2.916503906	76050.42017	257.31	-15.84						
3624	0.884765625	2.919726563	76779.66102	257.14	-16.01						
3628	0.8857421875	2.922949219	77521.36752	256.97	-16.18						
3632	0.88671875	2.926171875	78275.86207	256.80	-16.35						
3636	0.8876953125	2.929394531	79043.47826	256.63	-16.52						
3640	0.888671875	2.932617188	79824.5614	256.46	-16.69						
3644	0.8896484375	2.935839844	80619.46903	256.28	-16.87						
3648	0.890625	2.9390625	81428.57143	256.11	-17.04						
3652	0.8916015625	2.942285156	82252.25225	255.93	-17.22						
3656	0.892578125	2.945507813	83090.90909	255.75	-17.40						
3660	0.8935546875	2.948730469	83944.95413	255.57	-17.58						
3664	0.89453125	2.951953125	84814.81481	255.39	-17.76						
3668	0.8955078125	2.955175781	85700.93458	255.21	-17.94						
3672	0.896484375	2.958398438	86603.77358	255.03	-18.12						
3676	0.8974609375	2.961621094	87523.80952	254.84	-18.31						
3680	0.8984375	2.96484375	88461.53846	254.66	-18.49						
3684	0.8994140625	2.968066406	89417.47573	254.47	-18.68						
3688	0.900390625	2.971289063	90392.15686	254.28	-18.87						
3692	0.9013671875	2.974511719	91386.13861	254.09	-19.06						
3696	0.90234375	2.977734375	92400	253.90	-19.25						
3700	0.9033203125	2.980957031	93434.34343	253.71	-19.44						
3704	0.904296875	2.984179688	94489.79592	253.51	-19.64						
3708	0.9052734375	2.987402344	95567.01031	253.32	-19.83						
3712	0.90625	2.990625	96666.66667	253.12	-20.03						
3716	0.9072265625	2.993847656	97789.47368	252.92	-20.23						
3720	0.908203125	2.997070313	98936.17021	252.72	-20.43						
3724	0.9091796875	3.000292969	100107.5269	252.52	-20.63						
3728	0.91015625	3.003515625	101304.3478	252.32	-20.83						
3732	0.9111328125	3.006738281	102527.4725	252.11	-21.04						
3736	0.912109375	3.009960938	103777.7778	251.90	-21.25						
3740	0.9130859375	3.013183594	105056.1798	251.69	-21.46						
3744	0.9140625	3.01640625	106363.6364	251.48	-21.67						
3748	0.9150390625	3.019628906	107701.1494	251.27	-21.88						
3752	0.916015625	3.022851563	109069.7674	251.06	-22.09						
3756	0.9169921875	3.026074219	110470.5882	250.84	-22.31						
3760	0.91796875	3.029296875	111904.7619	250.62	-22.53						
3764	0.9189453125	3.032519531	113373.494	250.40	-22.75						
3768	0.919921875	3.035742188	114878.0488	250.18	-22.97						
3772	0.9208984375	3.038964844	116419.7531	249.95	-23.20						
3776	0.921875	3.0421875	118000	249.73	-23.42						
3780	0.9228515625	3.045410156	119620.2532	249.50	-23.65						
3784	0.923828125	3.048632813	121282.0513	249.26	-23.89						
3788	0.9248046875	3.051855469	122987.013	249.03	-24.12						
3792	0.92578125	3.055078125	124736.8421	248.79	-24.36						
3796	0.9267578125	3.058300781	126533.3333	248.55	-24.60						
3800	0.927734375	3.061523438	128378.3784	248.31	-24.84						
3804	0.9287109375	3.064746094	130273.9726	248.07	-25.08						
3808	0.9296875	3.06796875	132222.2222	247.82	-25.33						
3812	0.9306640625	3.071191406	134225.3521	247.57	-25.58						
3816	0.931640625	3.074414063	136285.7143	247.32	-25.83						
3820	0.9326171875	3.077636719	138405.7971	247.06	-26.09						
3824	0.93359375	3.080859375	140588.2353	246.81	-26.34						
3828	0.9345703125	3.084082031	142835.8209	246.54	-26.61						
3832	0.935546875	3.087304688	145151.5152	246.28	-26.87						
3836	0.9365234375	3.090527344	147538.4615	246.01	-27.14						
3840	0.9375	3.09375	150000	245.74	-27.41						
3844	0.9384765625	3.096972656	152539.6825	245.47	-27.68						
3848	0.939453125	3.100195313	155161.2903	245.19	-27.96						
3852	0.9404296875	3.103417969	157868.8525	244.91	-28.24						
3856	0.94140625	3.106640625	160666.6667	244.62	-28.53						
3860	0.9423828125	3.109863281	163559.322	244.33	-28.82						
3864	0.943359375	3.113085938	166551.7241	244.04	-29.11						
3868	0.9443359375	3.116308594	169649.1228	243.74	-29.41						
3872	0.9453125	3.11953125	172857.1429	243.44	-29.71						
3876	0.9462890625	3.122753906	176181.8182	243.13	-30.02						
3880	0.947265625	3.125976563	179629.6296	242.82	-30.33						
3884	0.9482421875	3.129199219	183207.5472	242.50	-30.65						
3888	0.94921875	3.132421875	186923.0769	242.18	-30.97						
3892	0.9501953125	3.135644531	190784.3137	241.85	-31.30						
3896	0.951171875	3.138867188	194800	241.52	-31.63						
3900	0.9521484375	3.142089844	198979.5918	241.19	-31.96						
3904	0.953125	3.1453125	203333.3333	240.84	-32.31						
3908	0.9541015625	3.148535156	207872.3404	240.49	-32.66						
3912	0.955078125	3.151757813	212608.6957	240.14	-33.01						
3916	0.9560546875	3.154980469	217555.5556	239.78	-33.37						
3920	0.95703125	3.158203125	222727.2727	239.41	-33.74						
3924	0.9580078125	3.161425781	228139.5349	239.03	-34.12						
3928	0.958984375	3.164648438	233809.5238	238.65	-34.50						
3932	0.9599609375	3.167871094	239756.0976	238.26	-34.89						
3936	0.9609375	3.17109375	246000	237.86	-35.29						
3940	0.9619140625	3.174316406	252564.1026	237.45	-35.70						
3944	0.962890625	3.177539063	259473.6842	237.04	-36.11						
3948	0.9638671875	3.180761719	266756.7568	236.61	-36.54						
3952	0.96484375	3.183984375	274444.4444	236.18	-36.97						
3956	0.9658203125	3.187207031	282571.4286	235.73	-37.42						
3960	0.966796875	3.190429688	291176.4706	235.27	-37.88						
3964	0.9677734375	3.193652344	300303.0303	234.80	-38.35						
3968	0.96875	3.196875	310000	234.32	-38.83						
3972	0.9697265625	3.200097656	320322.5806	233.83	-39.32						
3976	0.970703125	3.203320313	331333.3333	233.32	-39.83						
3980	0.9716796875	3.206542969	343103.4483	232.80	-40.35						
3984	0.97265625	3.209765625	355714.2857	232.26	-40.89						
3988	0.9736328125	3.212988281	369259.2593	231.71	-41.44						
3992	0.974609375	3.216210938	383846.1538	231.13	-42.02						
3996	0.9755859375	3.219433594	399600	230.54	-42.61						
4000	0.9765625	3.22265625	416666.6667	229.93	-43.22						
4004	0.9775390625	3.225878906	435217.3913	229.29	-43.86						
4008	0.978515625	3.229101563	455454.5455	228.63	-44.52						
4012	0.9794921875	3.232324219	477619.0476	227.95	-45.20						
4016	0.98046875	3.235546875	502000	227.23	-45.92						
4020	0.9814453125	3.238769531	528947.3684	226.48	-46.67						
4024	0.982421875	3.241992188	558888.8889	225.70	-47.45						
4028	0.9833984375	3.245214844	592352.9412	224.88	-48.27						
4032	0.984375	3.2484375	630000	224.02	-49.13						
4036	0.9853515625	3.251660156	672666.6667	223.10	-50.05						
4040	0.986328125	3.254882813	721428.5714	222.13	-51.02						
4044	0.9873046875	3.258105469	777692.3077	221.10	-52.05						
4048	0.98828125	3.261328125	843333.3333	220.00	-53.15						
4052	0.9892578125	3.264550781	920909.0909	218.81	-54.34						
4056	0.990234375	3.267773438	1014000	217.52	-55.63						
4060	0.9912109375	3.270996094	1127777.778	216.11	-57.04						
4064	0.9921875	3.27421875	1270000	214.56	-58.59						
4068	0.9931640625	3.277441406	1452857.143	212.82	-60.33						
4072	0.994140625	3.280664063	1696666.667	210.85	-62.30						
4076	0.9951171875	3.283886719	2038000	208.56	-64.59						
4080	0.99609375	3.287109375	2550000	205.81	-67.34						
4084	0.9970703125	3.290332031	3403333.333	202.36	-70.79						
4088	0.998046875	3.293554688	5110000	197.67	-75.48						
4092	0.9990234375	3.296777344	10230000	190.07	-83.08						
4096	1	3.3	#DIV/0!	#DIV/0!	#DIV/0!						